Time (sec)	Position (Flex Unit) (mm)	Force (N)	Strain (%)	Stress (MPa)
0.178616	6.55367	0.700000	0.786440	1.31250
0.208509	6.55411	0.717710	0.786493	1.34570
0.238402	6.55555	0.733333	0.786665	1.37500
0.268295	6.55782	0.747750	0.786938	1.40203
0.298188	6.56050	0.766667	0.787260	1.43750
0.328081	6.56343	0.778221	0.787612	1.45916
0.357974	6.56636	0.810130	0.787963	1.51899
0.387867	6.56909	0.833333	0.788291	1.56250
0.417760	6.57185	0.840919	0.788622	1.57672
0.447654	6.57469	0.872535	0.788963	1.63600
0.477547	6.57752	0.900000	0.789302	1.68750
0.507440	6.58020	0.910874	0.789624	1.70789
0.537333	6.58307	0.945613	0.789968	1.77302
0.567226	6.58566	0.946184	0.790280	1.77409
0.597119	6.58837	0.962100	0.790604	1.80394
0.627012	6.59132	1.00000	0.790958	1.87500
0.656905	6.59407	1.00000	0.791289	1.87500
0.686798	6.59694	1.02302	0.791633	1.91815
0.716692	6.59955	1.06471	0.791946	1.99633
0.746585	6.60231	1.10000	0.792277	2.06250
0.776478	6.60505	1.10000	0.792606	2.06250
0.806371	6.60776	1.12450	0.792931	2.10844
0.836264	6.61066	1.16658	0.793279	2.18734
0.866157	6.61352	1.16667	0.793622	2.18750
0.896050	6.61612	1.16667	0.793934	2.18750
0.925943	6.61902	1.19308	0.794282	2.23702
0.955836	6.62174	1.23333	0.794608	2.31250
0.985730	6.62462	1.23990	0.794955	2.32482
1.01562	6.62735	1.26667	0.795281	2.37500
1.04552	6.63056	1.26667	0.795667	2.37500
1.07541	6.63308	1.29861	0.795970	2.43489
1.10530	6.63594	1.33081	0.796313	2.49526
1.13520	6.63882	1.33333	0.796658	2.50000
1.16509	6.64154	1.33333	0.796985	2.50000
1.19498	6.64429	1.38732	0.797315	2.60123
1.22487	6.64704	1.40000	0.797644	2.62500
1.25477	6.64985	1.42429	0.797982	2.67054
1.28466	6.65282	1.43333	0.798339	2.68750
1.31455	6.65560	1.45418	0.798673	2.72657
1.34445	6.65820	1.48584	0.798984	2.78595
1.37434	6.66085	1.48221	0.799301	2.77915
1.40423	6.66361	1.48270	0.799633	2.78007
1.43413	6.66636	1.51407	0.799963	2.83887
1.46402	6.66906	1.54577	0.800287	2.89832
1.49391	6.67177	1.56667	0.800612	2.93750
1.52381	6.67427	1.56667	0.800913	2.93750
1.55370	6.67732	1.58789	0.801278	2.97729
1.58359	6.68000	1.62121	0.801600	3.03977
1.61348	6.68277	1.63333	0.801933	3.06250
1.64338	6.68529	1.63866	0.802234	3.07249
1.67327	6.68792	1.66936	0.802551	3.13005
1.70316	6.69091	1.70000	0.802909	3.18750
1.73306	6.69330	1.71722	0.803196	3.21978
1.76295	6.69626	1.73333	0.803552	3.25000
1.79284	6.69916	1.74696	0.803899	3.27554
1.82274	6.70187	1.77888	0.804225	3.33540
1.85263	6.70463	1.80000	0.804556	3.37499
1.88252	6.70744	1.80000	0.804893	3.37499
1.91242	6.71013	1.80745	0.805216	3.38896
1.94231	6.71279	1.84101	0.805535	3.45190
1.97220	6.71528	1.85210	0.805834	3.47268
2.00210	6.71760	1.86667	0.806112	3.49999
2.03199	6.71957	1.88307	0.806349	3.53075
2.06188	6.72291	1.90000	0.806749	3.56249
2.09177	6.72633	1.94125	0.807160	3.63983
2.12167	6.72950	1.96667	0.807540	3.68749
2.15156	6.73210	1.96667	0.807852	3.68749
2.18145	6.73512	1.96982	0.808214	3.69341
2.21135	6.73798	2.00172	0.808558	3.75323
2.24124	6.74068	2.03367	0.808881	3.81313
2.27113	6.74311	2.06667	0.809174	3.87499
2.30103	6.74558	2.06667	0.809470	3.87499
2.33092	6.74862	2.06667	0.809834	3.87499
2.36081	6.75163	2.09431	0.810195	3.92682
2.39071	6.75416	2.13333	0.810499	3.99999
2.42060	6.75687	2.13333	0.810824	3.99999
2.45049	6.75960	2.15715	0.811152	4.04465
2.48039	6.76259	2.18865	0.811511	4.10371
2.51028	6.76495	2.20000	0.811795	4.12499
2.54017	6.76624	2.20000	0.811949	4.12499
2.57006	6.76907	2.20107	0.812288	4.12701
2.59996	6.77278	2.23333	0.812733	4.18749
2.62985	6.77537	2.26667	0.813045	4.24999
2.65974	6.77854	2.26667	0.813425	4.24999
2.68964	6.78129	2.29456	0.813754	4.30229
2.71953	6.78435	2.30000	0.814122	4.31249
2.74942	6.78665	2.33333	0.814398	4.37499
2.77932	6.78946	2.33333	0.814735	4.37499
2.80921	6.79203	2.38002	0.815044	4.46254
2.83910	6.79505	2.40000	0.815406	4.49999
2.86900	6.79746	2.43333	0.815695	4.56249
2.89889	6.80051	2.43611	0.816062	4.56769
2.92878	6.80378	2.46667	0.816454	4.62499
2.95867	6.80613	2.46667	0.816736	4.62499
2.98857	6.80875	2.48253	0.817050	4.65473
3.01846	6.81217	2.50000	0.817460	4.68749
3.04835	6.81479	2.53333	0.817775	4.74999
3.07825	6.81752	2.53333	0.818103	4.74999
3.10814	6.81992	2.53333	0.818390	4.74999
3.13803	6.82256	2.53995	0.818708	4.76239
3.16793	6.82514	2.57337	0.819016	4.82505
3.19782	6.82888	2.61977	0.819465	4.91206
3.22771	6.83134	2.63333	0.819761	4.93749
3.25761	6.83361	2.63333	0.820033	4.93749
3.28750	6.83680	2.66667	0.820417	4.99999
3.31739	6.83900	2.67149	0.820680	5.00904
3.34729	6.84235	2.70514	0.821082	5.07213
3.37718	6.84479	2.73546	0.821374	5.12898
3.40707	6.84831	2.76156	0.821797	5.17793
3.43696	6.85069	2.76667	0.822083	5.18749
3.46686	6.85339	2.76667	0.822407	5.18749
3.49675	6.85605	2.78948	0.822726	5.23027
3.52664	6.85850	2.80501	0.823020	5.25939
3.55654	6.86156	2.83333	0.823387	5.31249
3.58643	6.86387	2.83333	0.823664	5.31249
3.61632	6.86734	2.86667	0.824081	5.37499
3.64622	6.87002	2.86667	0.824403	5.37499
3.67611	6.87191	2.86667	0.824629	5.37499
3.70600	6.87506	2.89583	0.825008	5.42968
3.73590	6.87769	2.92450	0.825323	5.48342
3.76579	6.88064	2.95976	0.825677	5.54955
3.79568	6.88314	2.96667	0.825977	5.56249
3.82558	6.88614	2.98532	0.826337	5.59746
3.85547	6.88900	3.00000	0.826680	5.62499
3.88536	6.89190	3.03333	0.827028	5.68749
3.91525	6.89549	3.03333	0.827458	5.68749
3.94515	6.89758	3.03578	0.827709	5.69208
3.97504	6.90063	3.06627	0.828075	5.74925
4.00493	6.90264	3.09924	0.828317	5.81106
4.03483	6.90631	3.13307	0.828758	5.87449
4.06472	6.90879	3.14767	0.829055	5.90187
4.09461	6.91117	3.16667	0.829341	5.93749
4.12451	6.91352	3.18916	0.829622	5.97967
4.15440	6.91762	3.20000	0.830114	5.99999
4.18429	6.91963	3.22360	0.830355	6.04424
4.21419	6.92246	3.22123	0.830695	6.03980
4.24408	6.92510	3.23333	0.831012	6.06249
4.27397	6.92745	3.24189	0.831294	6.07853
4.30386	6.93054	3.30000	0.831665	6.18749
4.33376	6.93385	3.33333	0.832061	6.24999
4.36365	6.93659	3.33333	0.832391	6.24999
4.39354	6.93961	3.33333	0.832753	6.24999
4.42344	6.94233	3.36271	0.833080	6.30508
4.45333	6.94519	3.36667	0.833423	6.31249
4.48322	6.94806	3.36667	0.833767	6.31249
4.51312	6.95068	3.41692	0.834081	6.40671
4.54301	6.95347	3.43333	0.834416	6.43749
4.57290	6.95624	3.43333	0.834749	6.43749
4.60280	6.95895	3.45429	0.835074	6.47679
4.63269	6.96175	3.48610	0.835410	6.53643
4.66258	6.96428	3.50000	0.835714	6.56249
4.69248	6.96698	3.51270	0.836037	6.58630
4.72237	6.97021	3.53333	0.836425	6.62499
4.75226	6.97306	3.54699	0.836767	6.65059
4.78215	6.97581	3.56667	0.837097	6.68749
4.81205	6.97842	3.57751	0.837411	6.70782
4.84194	6.98119	3.60946	0.837742	6.76774
4.87183	6.98396	3.63333	0.838076	6.81249
4.90173	6.98659	3.63989	0.838391	6.82479
4.93162	6.98942	3.66667	0.838730	6.87499
4.96151	6.99210	3.66984	0.839052	6.88093
4.99141	6.99484	3.70210	0.839381	6.94142
5.02130	6.99756	3.73333	0.839708	6.99999
5.05119	7.00027	3.73333	0.840032	6.99999
5.08109	7.00316	3.76472	0.840379	7.05884
5.11098	7.00601	3.76667	0.840722	7.06249
5.14087	7.00888	3.79497	0.841066	7.11556
5.17077	7.01148	3.82680	0.841377	7.17523
5.20066	7.01456	3.83333	0.841747	7.18749
5.23055	7.01743	3.83333	0.842092	7.18749
5.26044	7.02020	3.85592	0.842424	7.22984
5.29034	7.02296	3.88781	0.842756	7.28963
5.32023	7.02569	3.90000	0.843083	7.31249
5.35012	7.02848	3.90000	0.843418	7.31249
5.38002	7.03126	3.91677	0.843751	7.34393
5.40991	7.03397	3.94869	0.844077	7.40377
5.43980	7.03668	3.96667	0.844402	7.43749
5.46970	7.03946	3.97917	0.844735	7.46093
5.49959	7.04227	4.00000	0.845073	7.49999
5.52948	7.04504	4.00967	0.845404	7.51813
5.55938	7.04787	4.04163	0.845745	7.57805
5.58927	7.05059	4.07358	0.846071	7.63795
5.61916	7.05328	4.10000	0.846394	7.68749
5.64905	7.05601	4.10383	0.846721	7.69467
5.67895	7.05888	4.13574	0.847066	7.75450
5.70884	7.06173	4.16667	0.847408	7.81249
5.73873	7.06401	4.16667	0.847681	7.81249
5.76863	7.06732	4.16667	0.848078	7.81249
5.79852	7.07035	4.19671	0.848443	7.86882
5.82841	7.07312	4.22885	0.848774	7.92908
5.85831	7.07595	4.23333	0.849114	7.93749
5.88820	7.07881	4.25903	0.849458	7.98566
5.91809	7.08144	4.26667	0.849773	7.99999
5.94799	7.08422	4.26667	0.850106	7.99999
5.97788	7.08698	4.28800	0.850438	8.03999
6.00777	7.08969	4.30000	0.850763	8.06249
6.03767	7.09250	4.31851	0.851100	8.09720
6.06756	7.09530	4.35057	0.851436	8.15731
6.09745	7.09808	4.38241	0.851770	8.21701
6.12734	7.10087	4.40000	0.852104	8.24999
6.15724	7.10358	4.40000	0.852430	8.24999
6.18713	7.10629	4.41122	0.852754	8.27102
6.21702	7.10900	4.44311	0.853080	8.33082
6.24692	7.11159	4.47363	0.853391	8.38803
6.27681	7.11390	4.50000	0.853668	8.43749
6.30670	7.11752	4.50577	0.854102	8.44830
6.33660	7.12035	4.53770	0.854442	8.50817
6.36649	7.12283	4.56667	0.854740	8.56249
6.39638	7.12531	4.56667	0.855037	8.56249
6.42628	7.12814	4.58303	0.855377	8.59317
6.45617	7.13101	4.61495	0.855721	8.65302
6.48606	7.13388	4.63333	0.856066	8.68749
6.51596	7.13663	4.63333	0.856396	8.68749
6.54585	7.13935	4.64405	0.856722	8.70758
6.57574	7.14225	4.67599	0.857070	8.76747
6.60563	7.14483	4.69224	0.857379	8.79794
6.63553	7.14757	4.67299	0.857708	8.76184
6.66542	7.15044	4.70484	0.858052	8.82156
6.69531	7.15330	4.73333	0.858395	8.87499
6.72521	7.15602	4.73333	0.858722	8.87499
6.75510	7.15887	4.73429	0.859065	8.87679
6.78499	7.16114	4.78760	0.859337	8.97673
6.81489	7.16436	4.80000	0.859723	8.99999
6.84478	7.16717	4.82947	0.860061	9.05523
6.87467	7.16988	4.86137	0.860386	9.11506
6.90457	7.17273	4.86667	0.860728	9.12499
6.93446	7.17561	4.89191	0.861073	9.17233
6.96435	7.17836	4.90000	0.861403	9.18749
6.99424	7.18095	4.90000	0.861714	9.18749
7.02414	7.18361	4.94180	0.862033	9.26585
7.05403	7.18633	4.98629	0.862360	9.34927
7.08392	7.18913	4.98185	0.862696	9.34096
7.11382	7.19200	4.96667	0.863040	9.31249
7.14371	7.19479	4.98186	0.863375	9.34096
7.17360	7.19757	5.01375	0.863708	9.40076
7.20350	7.20038	5.04569	0.864046	9.46066
7.23339	7.20315	5.06667	0.864378	9.49999
7.26328	7.20596	5.07602	0.864715	9.51753
7.29318	7.20857	5.10674	0.865029	9.57512
7.32307	7.21088	5.13381	0.865305	9.62588
7.35296	7.21449	5.16667	0.865738	9.68749
7.38286	7.21731	5.16667	0.866077	9.68749
7.41275	7.22002	5.16887	0.866402	9.69161
7.44264	7.22272	5.20066	0.866727	9.75123
7.47253	7.22545	5.23269	0.867053	9.81128
7.50243	7.22831	5.23333	0.867397	9.81249
7.53232	7.23104	5.26320	0.867725	9.86848
7.56221	7.23377	5.26667	0.868053	9.87499
7.59211	7.23647	5.29375	0.868376	9.92577
7.62200	7.23917	5.30000	0.868700	9.93748
7.65189	7.24211	5.32396	0.869053	9.98242
7.68179	7.24503	5.33333	0.869403	9.99998
7.71168	7.24779	5.35444	0.869735	10.0396
7.74157	7.25051	5.38637	0.870061	10.0994
7.77147	7.25322	5.40000	0.870386	10.1250
7.80136	7.25603	5.41701	0.870724	10.1569
7.83125	7.25906	5.44636	0.871088	10.2119
7.86115	7.26206	5.46667	0.871447	10.2500
7.89104	7.26458	5.47931	0.871749	10.2737
7.92093	7.26727	5.51107	0.872073	10.3332
7.95082	7.26999	5.53333	0.872398	10.3750
7.98072	7.27274	5.53333	0.872729	10.3750
8.01061	7.27558	5.54011	0.873069	10.3877
8.04050	7.27830	5.57210	0.873395	10.4477
8.07040	7.28102	5.60420	0.873723	10.5079
8.10029	7.28371	5.63333	0.874046	10.5625
8.13018	7.28658	5.63425	0.874389	10.5642
8.16008	7.28933	5.66658	0.874719	10.6248
8.18997	7.29201	5.69814	0.875041	10.6840
8.21986	7.29487	5.70000	0.875384	10.6875
8.24976	7.29760	5.72861	0.875712	10.7411
8.27965	7.30044	5.76047	0.876053	10.8009
8.30954	7.30321	5.76667	0.876385	10.8125
8.33943	7.30603	5.79102	0.876723	10.8581
8.36933	7.30855	5.81911	0.877026	10.9108
8.39922	7.31152	5.83333	0.877382	10.9375
8.42911	7.31444	5.85339	0.877732	10.9751
8.45901	7.31725	5.88514	0.878071	11.0346
8.48890	7.32011	5.90000	0.878414	11.0625
8.51879	7.32283	5.91560	0.878739	11.0917
8.54869	7.32569	5.94761	0.879083	11.1518
8.57858	7.32859	5.96667	0.879431	11.1875
8.60847	7.33135	5.97796	0.879762	11.2087
8.63837	7.33416	5.99022	0.880100	11.2316
8.66826	7.33688	5.98337	0.880425	11.2188
8.69815	7.33962	6.04026	0.880755	11.3255
8.72805	7.34249	6.06667	0.881098	11.3750
8.75794	7.34536	6.07072	0.881444	11.3826
8.78783	7.34824	6.10000	0.881789	11.4375
8.81772	7.35097	6.10000	0.882116	11.4375
8.84762	7.35382	6.10000	0.882458	11.4375
8.87751	7.35668	6.16315	0.882801	11.5559
8.90740	7.35974	6.16667	0.883168	11.5625
8.93730	7.36228	6.19352	0.883473	11.6128
8.96719	7.36511	6.20000	0.883813	11.6250
8.99708	7.36773	6.22585	0.884128	11.6735
9.02698	7.37053	6.23333	0.884464	11.6875
9.05687	7.37331	6.25658	0.884797	11.7311
9.08676	7.37612	6.26667	0.885135	11.7500
9.11666	7.37888	6.30702	0.885466	11.8257
9.14655	7.38178	6.33333	0.885813	11.8750
9.17644	7.38463	6.35060	0.886156	11.9074
9.20633	7.38735	6.36667	0.886482	11.9375
9.23623	7.39013	6.36667	0.886816	11.9375
9.26612	7.39294	6.37969	0.887153	11.9619
9.29601	7.39571	6.41160	0.887485	12.0217
9.32591	7.39854	6.43333	0.887824	12.0625
9.35580	7.40123	6.44197	0.888148	12.0787
9.38569	7.40397	6.46667	0.888477	12.1250
9.41559	7.40690	6.47142	0.888828	12.1339
9.44548	7.41010	6.49808	0.889212	12.1839
9.47537	7.41243	6.53333	0.889492	12.2500
9.50527	7.41514	6.53476	0.889816	12.2527
9.53516	7.41817	6.56666	0.890180	12.3125
9.56505	7.42089	6.59872	0.890507	12.3726
9.59495	7.42374	6.60000	0.890849	12.3750
9.62484	7.42647	6.62902	0.891176	12.4294
9.65473	7.42945	6.66089	0.891534	12.4892
9.68462	7.43222	6.69282	0.891867	12.5490
9.71452	7.43493	6.70000	0.892192	12.5625
9.74441	7.43765	6.70000	0.892518	12.5625
9.77430	7.44058	6.72186	0.892869	12.6035
9.80420	7.44341	6.75387	0.893209	12.6635
9.83409	7.44611	6.76667	0.893533	12.6875
9.86398	7.44881	6.78408	0.893858	12.7201
9.89388	7.45153	6.81603	0.894184	12.7800
9.92377	7.45432	6.83333	0.894518	12.8125
9.95366	7.45711	6.84442	0.894853	12.8333
9.98356	7.45979	6.87326	0.895175	12.8873
10.0134	7.46264	6.91023	0.895517	12.9567
10.0433	7.46559	6.94227	0.895871	13.0167
10.0732	7.46834	6.97417	0.896201	13.0765
10.1031	7.47120	7.00000	0.896544	13.1250
10.1330	7.47405	7.00455	0.896886	13.1335
10.1629	7.47677	7.03647	0.897212	13.1934
10.1928	7.47948	7.06667	0.897538	13.2500
10.2227	7.48235	7.06687	0.897882	13.2504
10.2526	7.48522	7.09879	0.898227	13.3102
10.2825	7.48810	7.13069	0.898571	13.3700
10.3124	7.49099	7.13333	0.898919	13.3750
10.3423	7.49398	7.16115	0.899277	13.4271
10.3722	7.49688	7.16667	0.899625	13.4375
10.4021	7.49962	7.19164	0.899955	13.4843
10.4320	7.50245	7.22348	0.900294	13.5440
10.4618	7.50527	7.23333	0.900633	13.5625
10.4917	7.50828	7.23333	0.900994	13.5625
10.5216	7.51111	7.24907	0.901333	13.5920
10.5515	7.51396	7.28460	0.901675	13.6586
10.5814	7.51690	7.31648	0.902028	13.7184
10.6113	7.51960	7.31848	0.902352	13.7221
10.6412	7.52231	7.31341	0.902677	13.7126
10.6711	7.52502	7.33333	0.903002	13.7500
10.7010	7.52778	7.34386	0.903334	13.7697
10.7309	7.53065	7.37572	0.903678	13.8295
10.7608	7.53348	7.40000	0.904018	13.8750
10.7907	7.53621	7.40000	0.904345	13.8750
10.8206	7.53895	7.40504	0.904674	13.8844
10.8505	7.54182	7.43333	0.905018	13.9375
10.8803	7.54483	7.43514	0.905379	13.9409
10.9102	7.54770	7.46667	0.905723	14.0000
10.9401	7.55040	7.46667	0.906048	14.0000
10.9700	7.55329	7.49766	0.906395	14.0581
10.9999	7.55615	7.50000	0.906738	14.0625
11.0298	7.55850	7.52350	0.907020	14.1065
11.0597	7.56160	7.55855	0.907392	14.1723
11.0896	7.56473	7.59189	0.907768	14.2348
11.1195	7.56740	7.60000	0.908088	14.2500
11.1494	7.57017	7.62224	0.908420	14.2917
11.1793	7.57304	7.65418	0.908765	14.3516
11.2092	7.57582	7.68607	0.909098	14.4114
11.2391	7.57852	7.70000	0.909423	14.4375
11.2690	7.58132	7.70000	0.909758	14.4375
11.2989	7.58420	7.73039	0.910104	14.4945
11.3287	7.58701	7.76667	0.910441	14.5625
11.3586	7.58970	7.77887	0.910764	14.5854
11.3885	7.59246	7.80000	0.911096	14.6250
11.4184	7.59529	7.80928	0.911435	14.6424
11.4483	7.59804	7.84114	0.911764	14.7021
11.4782	7.60087	7.86667	0.912105	14.7500
11.5081	7.60359	7.87163	0.912431	14.7593
11.5380	7.60627	7.90000	0.912753	14.8125
11.5679	7.60870	7.90000	0.913044	14.8125
11.5978	7.61192	7.93421	0.913430	14.8766
11.6277	7.61493	7.96590	0.913791	14.9360
11.6576	7.61764	7.99777	0.914117	14.9958
11.6875	7.62036	8.00000	0.914443	15.0000
11.7174	7.62335	8.02823	0.914802	15.0529
11.7472	7.62611	8.03333	0.915133	15.0625
11.7771	7.62882	8.03333	0.915459	15.0625
11.8070	7.63166	8.08144	0.915800	15.1527
11.8369	7.63430	8.10000	0.916116	15.1875
11.8668	7.63705	8.12095	0.916446	15.2267
11.8967	7.63983	8.15288	0.916779	15.2866
11.9266	7.64263	8.16667	0.917116	15.3125
11.9565	7.64551	8.18341	0.917461	15.3439
11.9864	7.64830	8.20000	0.917796	15.3750
12.0163	7.65108	8.21385	0.918130	15.4009
12.0462	7.65390	8.23333	0.918468	15.4375
12.0761	7.65674	8.24270	0.918809	15.4550
12.1060	7.65976	8.27061	0.919171	15.5074
12.1359	7.66241	8.30826	0.919489	15.5780
12.1658	7.66527	8.33333	0.919832	15.6250
12.1956	7.66814	8.33858	0.920177	15.6348
12.2255	7.67099	8.37044	0.920518	15.6945
12.2554	7.67373	8.40256	0.920848	15.7548
12.2853	7.67658	8.43333	0.921190	15.8125
12.3152	7.67931	8.43333	0.921517	15.8125
12.3451	7.68216	8.46479	0.921860	15.8715
12.3750	7.68502	8.46667	0.922202	15.8750
12.4049	7.68789	8.49509	0.922547	15.9283
12.4348	7.69063	8.52700	0.922875	15.9881
12.4647	7.69346	8.55878	0.923215	16.0477
12.4946	7.69621	8.56667	0.923545	16.0625
12.5245	7.69915	8.58931	0.923898	16.1049
12.5544	7.70210	8.60000	0.924252	16.1250
12.5843	7.70496	8.61993	0.924595	16.1623
12.6141	7.70748	8.63333	0.924897	16.1875
12.6440	7.71020	8.64665	0.925224	16.2124
12.6739	7.71341	8.68236	0.925609	16.2794
12.7038	7.71619	8.71401	0.925943	16.3387
12.7337	7.71890	8.73333	0.926268	16.3750
12.7636	7.72168	8.74458	0.926601	16.3961
12.7935	7.72452	8.77675	0.926943	16.4564
12.8234	7.72723	8.80000	0.927267	16.5000
12.8533	7.72995	8.80689	0.927594	16.5129
12.8832	7.73279	8.83333	0.927935	16.5625
12.9131	7.73552	8.83728	0.928263	16.5699
12.9430	7.73837	8.86909	0.928605	16.6295
12.9729	7.74110	8.90000	0.928932	16.6875
13.0028	7.74397	8.90000	0.929276	16.6875
13.0327	7.74684	8.93157	0.929621	16.7467
13.0625	7.74973	8.93333	0.929968	16.7500
13.0924	7.75258	8.99071	0.930310	16.8576
13.1223	7.75545	9.00000	0.930654	16.8750
13.1522	7.75795	9.00000	0.930954	16.8750
13.1821	7.76100	9.02228	0.931321	16.9167
13.2120	7.76395	9.03333	0.931674	16.9375
13.2419	7.76676	9.07620	0.932011	17.0179
13.2718	7.76974	9.10000	0.932369	17.0625
13.3017	7.77247	9.11733	0.932697	17.0950
13.3316	7.77470	9.13333	0.932964	17.1250
13.3615	7.77747	9.13333	0.933296	17.1250
13.3914	7.77975	9.13333	0.933570	17.1250
13.4213	7.78312	9.16667	0.933974	17.1875
13.4512	7.78564	9.20000	0.934276	17.2500
13.4810	7.78835	9.20000	0.934602	17.2500
13.5109	7.79139	9.23333	0.934966	17.3125
13.5408	7.79351	9.26667	0.935222	17.3750
13.5707	7.79679	9.26667	0.935615	17.3750
13.6006	7.79981	9.29489	0.935977	17.4279
13.6305	7.80218	9.33333	0.936262	17.5000
13.6604	7.80528	9.33333	0.936633	17.5000
13.6903	7.80795	9.33721	0.936954	17.5072
13.7202	7.81100	9.40000	0.937320	17.6250
13.7501	7.81321	9.40000	0.937585	17.6250
13.7800	7.81644	9.40000	0.937973	17.6250
13.8099	7.81936	9.43333	0.938323	17.6875
13.8398	7.82187	9.45119	0.938624	17.7209
13.8697	7.82499	9.46667	0.938999	17.7500
13.8996	7.82754	9.47670	0.939304	17.7688
13.9294	7.83055	9.50000	0.939666	17.8125
13.9593	7.83375	9.50226	0.940050	17.8167
13.9892	7.83593	9.53333	0.940312	17.8750
14.0191	7.83900	9.56667	0.940679	17.9375
14.0490	7.84188	9.59044	0.941025	17.9820
14.0789	7.84437	9.58668	0.941324	17.9750
14.1088	7.84765	9.61624	0.941718	18.0304
14.1387	7.85014	9.64572	0.942017	18.0857
14.1686	7.85293	9.66667	0.942351	18.1250
14.1985	7.85575	9.69444	0.942690	18.1770
14.2284	7.85897	9.70000	0.943076	18.1875
14.2583	7.86137	9.73333	0.943365	18.2500
14.2882	7.86450	9.75249	0.943740	18.2859
14.3181	7.86685	9.76667	0.944022	18.3125
14.3479	7.86967	9.80000	0.944361	18.3750
14.3778	7.87320	9.80106	0.944784	18.3770
14.4077	7.87525	9.83333	0.945030	18.4375
14.4376	7.87844	9.86667	0.945413	18.5000
14.4675	7.88116	9.88956	0.945739	18.5429
14.4974	7.88350	9.91910	0.946020	18.5983
14.5273	7.88687	9.93333	0.946424	18.6250
14.5572	7.88924	9.93333	0.946708	18.6250
14.5871	7.89210	9.96667	0.947052	18.6875
14.6469	7.89750	10.0000	0.947700	18.7500
14.6469	7.89750	10.0000	0.947700	18.7500
